Spektrum aufgenommen für  MESS   vom Mittwoch, 24. März 2021 um  15:02
Start=9000; Stop=3000; Step=5; Delay=250
Wellenlänge [Ä]  	Meßwert [mV]  
5390,000000	0,089133
5391,000000	0,100122
5392,000000	0,089744
5393,000000	0,095238
5394,000000	0,092186
5395,000000	0,092186
5396,000000	0,089133
5397,000000	0,094017
5398,000000	0,096459
5399,000000	0,097070
5400,000000	0,106227
5401,000000	0,121490
5402,000000	0,142857
5403,000000	0,169719
5404,000000	0,203297
5405,000000	0,242369
5406,000000	0,283883
5407,000000	0,316850
5408,000000	0,364469
5409,000000	0,408425
5410,000000	0,451770
5411,000000	0,497558
5412,000000	0,548840
5413,000000	0,590354
5414,000000	0,641636
5415,000000	0,690799
5416,000000	0,737485
5417,000000	0,793040
5418,000000	0,844933
5419,000000	0,901709
5420,000000	0,954536
5421,000000	1,007326
5422,000000	1,057387
5423,000000	1,117216
5424,000000	1,173993
5425,000000	1,226496
5426,000000	1,285104
5427,000000	1,343101
5428,000000	1,398046
5429,000000	1,456654
5430,000000	1,515873
5431,000000	1,574481
5432,000000	1,630647
5433,000000	1,688645
5434,000000	1,751490
5435,000000	1,805861
5436,000000	1,859585
5437,000000	1,914530
5438,000000	1,968864
5439,000000	2,027473
5440,000000	2,078144
5441,000000	2,133089
5442,000000	2,184156
5443,000000	2,236874
5444,000000	2,282051
5445,000000	2,328449
5446,000000	2,375458
5447,000000	2,419414
5448,000000	2,456044
5449,000000	2,491453
5450,000000	2,529914
5451,000000	2,568376
5452,000000	2,602564
5453,000000	2,636752
5454,000000	2,661783
5455,000000	2,689866
5456,000000	2,706960
5457,000000	2,721001
5458,000000	2,719672
5459,000000	2,716728
5460,000000	2,701465
5461,000000	2,680708
5462,000000	2,653236
5463,000000	2,616821
5464,000000	2,576923
5465,000000	2,543956
5466,000000	2,501831
5467,000000	2,455433
5468,000000	2,416361
5469,000000	2,370574
5470,000000	2,325397
5471,000000	2,277167
5472,000000	2,227717
5473,000000	2,186203
5474,000000	2,134921
5475,000000	2,086691
5476,000000	2,032357
5477,000000	1,983516
5478,000000	1,935287
5479,000000	1,882784
5480,000000	1,830891
5481,000000	1,777778
5482,000000	1,725885
5483,000000	1,667888
5484,000000	1,614774
5485,000000	1,556166
5486,000000	1,502442
5487,000000	1,448718
5488,000000	1,389499
5489,000000	1,335165
5490,000000	1,279609
5491,000000	1,227717
5492,000000	1,171551
5493,000000	1,115995
5494,000000	1,062882
5495,000000	1,012821
5496,000000	0,962149
5497,000000	0,905372
5498,000000	0,855922
5499,000000	0,815629
5500,000000	0,767399
5501,000000	0,723443
5502,000000	0,681929
5503,000000	0,633089
5504,000000	0,595849
5505,000000	0,557387
5506,000000	0,522589
5507,000000	0,482906
5508,000000	0,445055
5509,000000	0,409035
5510,000000	0,375458
5511,000000	0,335165
5512,000000	0,304640
5513,000000	0,272283
5514,000000	0,233822
5515,000000	0,196581
5516,000000	0,172772
5517,000000	0,144689
5518,000000	0,108059
5519,000000	0,079976
5520,000000	0,060440
