Spektrum aufgenommen für  MESS   vom Mittwoch, 24. März 2021 um  15:08
Start=9000; Stop=3000; Step=5; Delay=250
Wellenlänge [Ä]  	Meßwert [mV]  
5380,000000	0,033578
5381,000000	0,037851
5382,000000	0,034188
5383,000000	0,036020
5384,000000	0,030525
5385,000000	0,036630
5386,000000	0,032895
5387,000000	0,021978
5388,000000	0,042735
5389,000000	0,042125
5390,000000	0,041514
5391,000000	0,044567
5392,000000	0,053724
5393,000000	0,076313
5394,000000	0,098291
5395,000000	0,120269
5396,000000	0,156288
5397,000000	0,184982
5398,000000	0,221001
5399,000000	0,255800
5400,000000	0,292430
5401,000000	0,326618
5402,000000	0,362027
5403,000000	0,406593
5404,000000	0,446276
5405,000000	0,490843
5406,000000	0,536630
5407,000000	0,579365
5408,000000	0,626984
5409,000000	0,671551
5410,000000	0,715507
5411,000000	0,765568
5412,000000	0,814408
5413,000000	0,866300
5414,000000	0,913309
5415,000000	0,970696
5416,000000	1,025031
5417,000000	1,080586
5418,000000	1,133700
5419,000000	1,188645
5420,000000	1,242369
5421,000000	1,297924
5422,000000	1,354090
5423,000000	1,409035
5424,000000	1,470696
5425,000000	1,526252
5426,000000	1,589133
5427,000000	1,636142
5428,000000	1,705128
5429,000000	1,762515
5430,000000	1,819902
5431,000000	1,873626
5432,000000	1,929792
5433,000000	1,984127
5434,000000	2,045788
5435,000000	2,096459
5436,000000	2,156288
5437,000000	2,204518
5438,000000	2,257631
5439,000000	2,316239
5440,000000	2,357143
5441,000000	2,412698
5442,000000	2,459096
5443,000000	2,498779
5444,000000	2,536630
5445,000000	2,576923
5446,000000	2,621490
5447,000000	2,656288
5448,000000	2,695971
5449,000000	2,733822
5450,000000	2,758852
5451,000000	2,789988
5452,000000	2,817460
5453,000000	2,839438
5454,000000	2,868742
5455,000000	2,887057
5456,000000	2,898657
5457,000000	2,906593
5458,000000	2,905983
5459,000000	2,892552
5460,000000	2,874847
5461,000000	2,852259
5462,000000	2,828449
5463,000000	2,798535
5464,000000	2,764347
5465,000000	2,730159
5466,000000	2,688645
5467,000000	2,647741
5468,000000	2,611722
5469,000000	2,567155
5470,000000	2,523809
5471,000000	2,488400
5472,000000	2,441392
5473,000000	2,399267
5474,000000	2,347375
5475,000000	2,307692
5476,000000	2,258852
5477,000000	2,208791
5478,000000	2,163004
5479,000000	2,107448
5480,000000	2,058608
5481,000000	2,010989
5482,000000	1,962149
5483,000000	1,905480
5484,000000	1,850427
5485,000000	1,802808
5486,000000	1,749084
5487,000000	1,691697
5488,000000	1,637973
5489,000000	1,583028
5490,000000	1,531746
5491,000000	1,474359
5492,000000	1,423077
5493,000000	1,365690
5494,000000	1,311355
5495,000000	1,257631
5496,000000	1,206349
5497,000000	1,153846
5498,000000	1,105617
5499,000000	1,056166
5500,000000	1,008547
5501,000000	0,955433
5502,000000	0,912088
5503,000000	0,863248
5504,000000	0,819292
5505,000000	0,772894
5506,000000	0,743590
5507,000000	0,697802
5508,000000	0,660562
5509,000000	0,625153
5510,000000	0,587912
5511,000000	0,555556
5512,000000	0,515873
5513,000000	0,486569
5514,000000	0,449328
5515,000000	0,413309
5516,000000	0,377289
5517,000000	0,341270
5518,000000	0,311966
5519,000000	0,278999
5520,000000	0,247253
5521,000000	0,217338
5522,000000	0,193529
5523,000000	0,160562
5524,000000	0,131258
5525,000000	0,109280
5526,000000	0,084249
5527,000000	0,059829
5528,000000	0,049451
5529,000000	0,035409
5530,000000	0,028694
